Thrust [N], tau_x [Nm], tau_y [Nm], tau_z [Nm]
3.816581, 0.000194, -0.000387 ,0.000113
3.817279, 0.000194, -0.000387 ,0.000112
3.817990, 0.000194, -0.000387 ,0.000110
3.818713, 0.000194, -0.000387 ,0.000109
3.819448, 0.000194, -0.000386 ,0.000107
3.820196, 0.000194, -0.000386 ,0.000106
3.820956, 0.000194, -0.000386 ,0.000105
3.821728, 0.000194, -0.000385 ,0.000103
3.822510, 0.000194, -0.000385 ,0.000102
3.823305, 0.000194, -0.000385 ,0.000100
3.824110, 0.000194, -0.000384 ,0.000099
3.824927, 0.000194, -0.000384 ,0.000097
3.825755, 0.000194, -0.000383 ,0.000096
3.826593, 0.000194, -0.000383 ,0.000095
3.827442, 0.000194, -0.000383 ,0.000093
3.828301, 0.000194, -0.000382 ,0.000092
3.829170, 0.000194, -0.000382 ,0.000091
3.830049, 0.000194, -0.000381 ,0.000089
3.830938, 0.000194, -0.000381 ,0.000088
3.831836, 0.000194, -0.000380 ,0.000087
3.832744, 0.000194, -0.000380 ,0.000085
3.833661, 0.000194, -0.000379 ,0.000084
3.834587, 0.000194, -0.000379 ,0.000083
3.835523, 0.000194, -0.000378 ,0.000081
3.836467, 0.000194, -0.000378 ,0.000080
3.837420, 0.000194, -0.000377 ,0.000079
3.838380, 0.000193, -0.000377 ,0.000078
3.839350, 0.000193, -0.000376 ,0.000076
3.840327, 0.000193, -0.000375 ,0.000075
3.841312, 0.000193, -0.000375 ,0.000074
3.842305, 0.000193, -0.000374 ,0.000073
3.843306, 0.000193, -0.000374 ,0.000071
3.844314, 0.000193, -0.000373 ,0.000070
3.845330, 0.000192, -0.000372 ,0.000069
3.846352, 0.000192, -0.000372 ,0.000068
3.847382, 0.000192, -0.000371 ,0.000067
3.848418, 0.000192, -0.000371 ,0.000065
3.849461, 0.000192, -0.000370 ,0.000064
3.850511, 0.000191, -0.000369 ,0.000063
3.851567, 0.000191, -0.000369 ,0.000062
3.852629, 0.000191, -0.000368 ,0.000061
3.853698, 0.000191, -0.000367 ,0.000060
3.854772, 0.000190, -0.000367 ,0.000059
3.855852, 0.000190, -0.000366 ,0.000057
3.856937, 0.000190, -0.000365 ,0.000056
3.858028, 0.000190, -0.000364 ,0.000055
3.859125, 0.000189, -0.000364 ,0.000054
3.860227, 0.000189, -0.000363 ,0.000053
3.861334, 0.000189, -0.000362 ,0.000052
3.862445, 0.000189, -0.000362 ,0.000051
3.863562, 0.000188, -0.000361 ,0.000050
3.864683, 0.000188, -0.000360 ,0.000049
3.865808, 0.000188, -0.000359 ,0.000048
3.866939, 0.000187, -0.000359 ,0.000047
3.868073, 0.000187, -0.000358 ,0.000046
3.869211, 0.000187, -0.000357 ,0.000045
3.870354, 0.000186, -0.000356 ,0.000044
3.871500, 0.000186, -0.000356 ,0.000043
3.872650, 0.000186, -0.000355 ,0.000042
3.873803, 0.000185, -0.000354 ,0.000041
3.874960, 0.000185, -0.000353 ,0.000040
3.876121, 0.000185, -0.000352 ,0.000039
3.877284, 0.000184, -0.000352 ,0.000038
3.878451, 0.000184, -0.000351 ,0.000037
3.879620, 0.000184, -0.000350 ,0.000036
3.880793, 0.000183, -0.000349 ,0.000035
3.881968, 0.000183, -0.000348 ,0.000034
3.883145, 0.000183, -0.000348 ,0.000033
3.884326, 0.000182, -0.000347 ,0.000033
3.885508, 0.000182, -0.000346 ,0.000032
3.886692, 0.000182, -0.000345 ,0.000031
3.887879, 0.000181, -0.000344 ,0.000030
3.889068, 0.000181, -0.000344 ,0.000029
3.890258, 0.000180, -0.000343 ,0.000028
3.891451, 0.000180, -0.000342 ,0.000027
3.892645, 0.000180, -0.000341 ,0.000026
3.893840, 0.000179, -0.000340 ,0.000026
3.895037, 0.000179, -0.000339 ,0.000025
3.896235, 0.000178, -0.000339 ,0.000024
3.897435, 0.000178, -0.000338 ,0.000023
3.898636, 0.000178, -0.000337 ,0.000022
3.899837, 0.000177, -0.000336 ,0.000022
3.901040, 0.000177, -0.000335 ,0.000021
3.902243, 0.000176, -0.000334 ,0.000020
3.903447, 0.000176, -0.000334 ,0.000019
3.904651, 0.000176, -0.000333 ,0.000019
3.905856, 0.000175, -0.000332 ,0.000018
3.907062, 0.000175, -0.000331 ,0.000017
3.908267, 0.000174, -0.000330 ,0.000016
3.909472, 0.000174, -0.000329 ,0.000016
3.910678, 0.000173, -0.000328 ,0.000015
3.911884, 0.000173, -0.000328 ,0.000014
3.913090, 0.000173, -0.000327 ,0.000013
3.914295, 0.000172, -0.000326 ,0.000013
3.915500, 0.000172, -0.000325 ,0.000012
3.916705, 0.000171, -0.000324 ,0.000011
3.917909, 0.000171, -0.000323 ,0.000011
3.919112, 0.000170, -0.000323 ,0.000010
3.920315, 0.000170, -0.000322 ,0.000009
3.921516, 0.000170, -0.000321 ,0.000009
3.922718, 0.000169, -0.000320 ,0.000008
3.923918, 0.000169, -0.000319 ,0.000007
3.925117, 0.000168, -0.000318 ,0.000007
3.926315, 0.000168, -0.000317 ,0.000006
3.927511, 0.000167, -0.000317 ,0.000006
3.928707, 0.000167, -0.000316 ,0.000005
3.929901, 0.000167, -0.000315 ,0.000004
3.931093, 0.000166, -0.000314 ,0.000004
3.932284, 0.000166, -0.000313 ,0.000003
3.933473, 0.000165, -0.000312 ,0.000003
3.934660, 0.000165, -0.000311 ,0.000002
3.935846, 0.000164, -0.000311 ,0.000001
3.937030, 0.000164, -0.000310 ,0.000001
3.938211, 0.000163, -0.000309 ,0.000000
3.939391, 0.000163, -0.000308 ,-0.000000
3.940569, 0.000163, -0.000307 ,-0.000001
3.941744, 0.000162, -0.000306 ,-0.000001
3.942917, 0.000162, -0.000305 ,-0.000002
3.944088, 0.000161, -0.000305 ,-0.000002
3.945256, 0.000161, -0.000304 ,-0.000003
3.946421, 0.000160, -0.000303 ,-0.000003
3.947585, 0.000160, -0.000302 ,-0.000004
3.948745, 0.000159, -0.000301 ,-0.000004
3.949903, 0.000159, -0.000300 ,-0.000005
3.951058, 0.000158, -0.000299 ,-0.000005
3.952210, 0.000158, -0.000299 ,-0.000006
3.953359, 0.000158, -0.000298 ,-0.000006
3.954505, 0.000157, -0.000297 ,-0.000007
3.955648, 0.000157, -0.000296 ,-0.000007
3.956788, 0.000156, -0.000295 ,-0.000008
3.957925, 0.000156, -0.000294 ,-0.000008
3.959058, 0.000155, -0.000294 ,-0.000009
3.960188, 0.000155, -0.000293 ,-0.000009
3.961315, 0.000154, -0.000292 ,-0.000010
3.962438, 0.000154, -0.000291 ,-0.000010
3.963557, 0.000154, -0.000290 ,-0.000010
3.964674, 0.000153, -0.000289 ,-0.000011
3.965786, 0.000153, -0.000289 ,-0.000011
3.966895, 0.000152, -0.000288 ,-0.000012
3.967999, 0.000152, -0.000287 ,-0.000012
3.969101, 0.000151, -0.000286 ,-0.000013
3.970198, 0.000151, -0.000285 ,-0.000013
3.971291, 0.000150, -0.000285 ,-0.000013
3.972380, 0.000150, -0.000284 ,-0.000014
3.973466, 0.000150, -0.000283 ,-0.000014
3.974547, 0.000149, -0.000282 ,-0.000014
3.975624, 0.000149, -0.000281 ,-0.000015
3.976696, 0.000148, -0.000280 ,-0.000015
3.977765, 0.000148, -0.000280 ,-0.000016
3.978829, 0.000147, -0.000279 ,-0.000016
3.979888, 0.000147, -0.000278 ,-0.000016
3.980944, 0.000147, -0.000277 ,-0.000017
3.981995, 0.000146, -0.000276 ,-0.000017
3.983041, 0.000146, -0.000276 ,-0.000017
3.984083, 0.000145, -0.000275 ,-0.000018
3.985120, 0.000145, -0.000274 ,-0.000018
3.986152, 0.000144, -0.000273 ,-0.000018
3.987179, 0.000144, -0.000273 ,-0.000019
3.988202, 0.000144, -0.000272 ,-0.000019
3.989221, 0.000143, -0.000271 ,-0.000019
3.990234, 0.000143, -0.000270 ,-0.000020
3.991242, 0.000142, -0.000269 ,-0.000020
3.992245, 0.000142, -0.000269 ,-0.000020
3.993244, 0.000141, -0.000268 ,-0.000020
3.994237, 0.000141, -0.000267 ,-0.000021
3.995225, 0.000141, -0.000266 ,-0.000021
3.996208, 0.000140, -0.000266 ,-0.000021
3.997186, 0.000140, -0.000265 ,-0.000022
3.998159, 0.000139, -0.000264 ,-0.000022
3.999126, 0.000139, -0.000263 ,-0.000022
4.000088, 0.000138, -0.000263 ,-0.000022
4.001045, 0.000138, -0.000262 ,-0.000023
4.001997, 0.000138, -0.000261 ,-0.000023
4.002942, 0.000137, -0.000260 ,-0.000023
4.003882, 0.000137, -0.000260 ,-0.000023
4.004818, 0.000136, -0.000259 ,-0.000024
4.005747, 0.000136, -0.000258 ,-0.000024
4.006671, 0.000136, -0.000257 ,-0.000024
4.007590, 0.000135, -0.000257 ,-0.000024
4.008503, 0.000135, -0.000256 ,-0.000025
4.009410, 0.000134, -0.000255 ,-0.000025
4.010312, 0.000134, -0.000254 ,-0.000025
4.011208, 0.000134, -0.000254 ,-0.000025
4.012097, 0.000133, -0.000253 ,-0.000025
4.012981, 0.000133, -0.000252 ,-0.000026
4.013860, 0.000132, -0.000252 ,-0.000026
4.014732, 0.000132, -0.000251 ,-0.000026
4.015599, 0.000132, -0.000250 ,-0.000026
4.016460, 0.000131, -0.000249 ,-0.000026
4.017315, 0.000131, -0.000249 ,-0.000027
4.018163, 0.000130, -0.000248 ,-0.000027
4.019007, 0.000130, -0.000247 ,-0.000027
4.019844, 0.000130, -0.000247 ,-0.000027
4.020674, 0.000129, -0.000246 ,-0.000027
4.021499, 0.000129, -0.000245 ,-0.000027
4.022317, 0.000129, -0.000244 ,-0.000028
4.023130, 0.000128, -0.000244 ,-0.000028
4.023937, 0.000128, -0.000243 ,-0.000028
4.024736, 0.000127, -0.000242 ,-0.000028
4.025530, 0.000127, -0.000242 ,-0.000028
4.026318, 0.000127, -0.000241 ,-0.000028
4.027100, 0.000126, -0.000240 ,-0.000029
4.027875, 0.000126, -0.000240 ,-0.000029
4.028644, 0.000126, -0.000239 ,-0.000029
4.029406, 0.000125, -0.000238 ,-0.000029
4.030162, 0.000125, -0.000238 ,-0.000029
4.030912, 0.000124, -0.000237 ,-0.000029
4.031656, 0.000124, -0.000236 ,-0.000029
4.032393, 0.000124, -0.000236 ,-0.000030
4.033123, 0.000123, -0.000235 ,-0.000030
4.033848, 0.000123, -0.000234 ,-0.000030
4.034566, 0.000123, -0.000234 ,-0.000030
4.035277, 0.000122, -0.000233 ,-0.000030
4.035982, 0.000122, -0.000233 ,-0.000030
4.036680, 0.000122, -0.000232 ,-0.000030
4.037372, 0.000121, -0.000231 ,-0.000030
4.038057, 0.000121, -0.000231 ,-0.000031
4.038736, 0.000121, -0.000230 ,-0.000031
4.039408, 0.000120, -0.000229 ,-0.000031
4.040074, 0.000120, -0.000229 ,-0.000031
4.040732, 0.000120, -0.000228 ,-0.000031
4.041385, 0.000119, -0.000227 ,-0.000031
4.042030, 0.000119, -0.000227 ,-0.000031
4.042669, 0.000118, -0.000226 ,-0.000031
4.043302, 0.000118, -0.000226 ,-0.000031
4.043928, 0.000118, -0.000225 ,-0.000031
4.044547, 0.000117, -0.000224 ,-0.000031
4.045159, 0.000117, -0.000224 ,-0.000032
4.045764, 0.000117, -0.000223 ,-0.000032
4.046363, 0.000116, -0.000223 ,-0.000032
4.046955, 0.000116, -0.000222 ,-0.000032
4.047541, 0.000116, -0.000221 ,-0.000032
4.048119, 0.000116, -0.000221 ,-0.000032
4.048691, 0.000115, -0.000220 ,-0.000032
4.049256, 0.000115, -0.000220 ,-0.000032
4.049814, 0.000115, -0.000219 ,-0.000032
4.050366, 0.000114, -0.000218 ,-0.000032
4.050910, 0.000114, -0.000218 ,-0.000032
4.051449, 0.000114, -0.000217 ,-0.000032
4.051980, 0.000113, -0.000217 ,-0.000032
4.052504, 0.000113, -0.000216 ,-0.000032
4.053021, 0.000113, -0.000216 ,-0.000032
4.053532, 0.000112, -0.000215 ,-0.000033
4.054035, 0.000112, -0.000214 ,-0.000033
4.054533, 0.000112, -0.000214 ,-0.000033
4.055023, 0.000111, -0.000213 ,-0.000033
4.055506, 0.000111, -0.000213 ,-0.000033
4.055982, 0.000111, -0.000212 ,-0.000033
4.056451, 0.000111, -0.000212 ,-0.000033
4.056914, 0.000110, -0.000211 ,-0.000033
4.057370, 0.000110, -0.000211 ,-0.000033
4.057819, 0.000110, -0.000210 ,-0.000033
4.058261, 0.000109, -0.000209 ,-0.000033
4.058696, 0.000109, -0.000209 ,-0.000033
4.059124, 0.000109, -0.000208 ,-0.000033
4.059546, 0.000108, -0.000208 ,-0.000033
4.059960, 0.000108, -0.000207 ,-0.000033
4.060368, 0.000108, -0.000207 ,-0.000033
4.060769, 0.000108, -0.000206 ,-0.000033
4.061162, 0.000107, -0.000206 ,-0.000033
4.061550, 0.000107, -0.000205 ,-0.000033
4.061929, 0.000107, -0.000205 ,-0.000033
4.062302, 0.000106, -0.000204 ,-0.000033
4.062668, 0.000106, -0.000204 ,-0.000033
4.063028, 0.000106, -0.000203 ,-0.000033
4.063380, 0.000106, -0.000203 ,-0.000033
4.063726, 0.000105, -0.000202 ,-0.000033
4.064065, 0.000105, -0.000202 ,-0.000033
4.064396, 0.000105, -0.000201 ,-0.000033
4.064722, 0.000104, -0.000201 ,-0.000033
4.065039, 0.000104, -0.000200 ,-0.000033
4.065351, 0.000104, -0.000200 ,-0.000033
4.065655, 0.000104, -0.000199 ,-0.000033
4.065953, 0.000103, -0.000199 ,-0.000033
4.066243, 0.000103, -0.000198 ,-0.000033
4.066527, 0.000103, -0.000198 ,-0.000033
4.066803, 0.000103, -0.000197 ,-0.000033
4.067074, 0.000102, -0.000197 ,-0.000033
4.067338, 0.000102, -0.000196 ,-0.000033
4.067594, 0.000102, -0.000196 ,-0.000033
4.067843, 0.000102, -0.000195 ,-0.000033
4.068086, 0.000101, -0.000195 ,-0.000033
4.068322, 0.000101, -0.000194 ,-0.000033
4.068551, 0.000101, -0.000194 ,-0.000033
4.068773, 0.000101, -0.000193 ,-0.000033
4.068988, 0.000100, -0.000193 ,-0.000033
4.069198, 0.000100, -0.000192 ,-0.000033
4.069399, 0.000100, -0.000192 ,-0.000033
4.069594, 0.000100, -0.000191 ,-0.000033
4.069783, 0.000099, -0.000191 ,-0.000033
4.069964, 0.000099, -0.000190 ,-0.000033
4.070139, 0.000099, -0.000190 ,-0.000033
4.070308, 0.000099, -0.000190 ,-0.000032
4.070468, 0.000098, -0.000189 ,-0.000032
4.070624, 0.000098, -0.000189 ,-0.000032
4.070772, 0.000098, -0.000188 ,-0.000032
4.070913, 0.000098, -0.000188 ,-0.000032
4.071047, 0.000097, -0.000187 ,-0.000032
4.071175, 0.000097, -0.000187 ,-0.000032
4.071296, 0.000097, -0.000186 ,-0.000032
4.071411, 0.000097, -0.000186 ,-0.000032
4.071519, 0.000096, -0.000185 ,-0.000032
4.071620, 0.000096, -0.000185 ,-0.000032
4.071714, 0.000096, -0.000185 ,-0.000032
4.071803, 0.000096, -0.000184 ,-0.000032
4.071884, 0.000096, -0.000184 ,-0.000032
4.071959, 0.000095, -0.000183 ,-0.000032
4.072027, 0.000095, -0.000183 ,-0.000032
4.072089, 0.000095, -0.000182 ,-0.000032
4.072144, 0.000095, -0.000182 ,-0.000032
4.072192, 0.000094, -0.000182 ,-0.000032
4.072234, 0.000094, -0.000181 ,-0.000031
4.072270, 0.000094, -0.000181 ,-0.000031
4.072299, 0.000094, -0.000180 ,-0.000031
4.072321, 0.000094, -0.000180 ,-0.000031
4.072338, 0.000093, -0.000179 ,-0.000031
4.072347, 0.000093, -0.000179 ,-0.000031
4.072350, 0.000093, -0.000179 ,-0.000031
4.072347, 0.000093, -0.000178 ,-0.000031
4.072337, 0.000092, -0.000178 ,-0.000031
4.072321, 0.000092, -0.000177 ,-0.000031
4.072299, 0.000092, -0.000177 ,-0.000031
4.072270, 0.000092, -0.000177 ,-0.000031
4.072234, 0.000092, -0.000176 ,-0.000031
4.072193, 0.000091, -0.000176 ,-0.000031
4.072145, 0.000091, -0.000175 ,-0.000030
4.072091, 0.000091, -0.000175 ,-0.000030
4.072031, 0.000091, -0.000175 ,-0.000030
4.071964, 0.000091, -0.000174 ,-0.000030
4.071891, 0.000090, -0.000174 ,-0.000030
4.071811, 0.000090, -0.000173 ,-0.000030
4.071726, 0.000090, -0.000173 ,-0.000030
4.071634, 0.000090, -0.000173 ,-0.000030
4.071537, 0.000090, -0.000172 ,-0.000030
4.071433, 0.000089, -0.000172 ,-0.000030
4.071322, 0.000089, -0.000171 ,-0.000030
4.071206, 0.000089, -0.000171 ,-0.000030
4.071084, 0.000089, -0.000171 ,-0.000029
4.070955, 0.000089, -0.000170 ,-0.000029
4.070820, 0.000088, -0.000170 ,-0.000029
4.070680, 0.000088, -0.000170 ,-0.000029
4.070533, 0.000088, -0.000169 ,-0.000029
4.070381, 0.000088, -0.000169 ,-0.000029
4.070222, 0.000088, -0.000168 ,-0.000029
4.070057, 0.000087, -0.000168 ,-0.000029
4.069886, 0.000087, -0.000168 ,-0.000029
4.069710, 0.000087, -0.000167 ,-0.000029
4.069528, 0.000087, -0.000167 ,-0.000028
4.069339, 0.000087, -0.000167 ,-0.000028
4.069145, 0.000087, -0.000166 ,-0.000028
4.068944, 0.000086, -0.000166 ,-0.000028
4.068739, 0.000086, -0.000165 ,-0.000028
4.068527, 0.000086, -0.000165 ,-0.000028
4.068310, 0.000086, -0.000165 ,-0.000028
4.068086, 0.000086, -0.000164 ,-0.000028
4.067857, 0.000085, -0.000164 ,-0.000028
4.067622, 0.000085, -0.000164 ,-0.000027
4.067382, 0.000085, -0.000163 ,-0.000027
4.067135, 0.000085, -0.000163 ,-0.000027
4.066884, 0.000085, -0.000163 ,-0.000027
4.066626, 0.000085, -0.000162 ,-0.000027
4.066363, 0.000084, -0.000162 ,-0.000027
4.066094, 0.000084, -0.000162 ,-0.000027
4.065820, 0.000084, -0.000161 ,-0.000027
4.065540, 0.000084, -0.000161 ,-0.000027
4.065255, 0.000084, -0.000160 ,-0.000026
4.064964, 0.000083, -0.000160 ,-0.000026
4.064667, 0.000083, -0.000160 ,-0.000026
4.064365, 0.000083, -0.000159 ,-0.000026
4.064058, 0.000083, -0.000159 ,-0.000026
4.063745, 0.000083, -0.000159 ,-0.000026
4.063427, 0.000083, -0.000158 ,-0.000026
4.063104, 0.000082, -0.000158 ,-0.000026
4.062775, 0.000082, -0.000158 ,-0.000025
4.062441, 0.000082, -0.000157 ,-0.000025
4.062101, 0.000082, -0.000157 ,-0.000025
4.061757, 0.000082, -0.000157 ,-0.000025
4.061407, 0.000082, -0.000156 ,-0.000025
4.061051, 0.000081, -0.000156 ,-0.000025
4.060691, 0.000081, -0.000156 ,-0.000025
4.060326, 0.000081, -0.000155 ,-0.000025
4.059955, 0.000081, -0.000155 ,-0.000024
4.059579, 0.000081, -0.000155 ,-0.000024
4.059198, 0.000081, -0.000154 ,-0.000024
4.058813, 0.000080, -0.000154 ,-0.000024
4.058422, 0.000080, -0.000154 ,-0.000024
4.058026, 0.000080, -0.000153 ,-0.000024
4.057624, 0.000080, -0.000153 ,-0.000024
4.057219, 0.000080, -0.000153 ,-0.000024
4.056808, 0.000080, -0.000152 ,-0.000023
4.056392, 0.000079, -0.000152 ,-0.000023
4.055971, 0.000079, -0.000152 ,-0.000023
4.055545, 0.000079, -0.000151 ,-0.000023
4.055115, 0.000079, -0.000151 ,-0.000023
4.054679, 0.000079, -0.000151 ,-0.000023
4.054239, 0.000079, -0.000150 ,-0.000023
4.053795, 0.000078, -0.000150 ,-0.000022
4.053345, 0.000078, -0.000150 ,-0.000022
4.052891, 0.000078, -0.000149 ,-0.000022
4.052432, 0.000078, -0.000149 ,-0.000022
4.051969, 0.000078, -0.000149 ,-0.000022
4.051500, 0.000078, -0.000148 ,-0.000022
4.051027, 0.000078, -0.000148 ,-0.000022
4.050550, 0.000077, -0.000148 ,-0.000021
4.050068, 0.000077, -0.000148 ,-0.000021
4.049582, 0.000077, -0.000147 ,-0.000021
4.049091, 0.000077, -0.000147 ,-0.000021
4.048596, 0.000077, -0.000147 ,-0.000021
4.048096, 0.000077, -0.000146 ,-0.000021
4.047592, 0.000076, -0.000146 ,-0.000021
4.047083, 0.000076, -0.000146 ,-0.000020
4.046570, 0.000076, -0.000145 ,-0.000020
4.046053, 0.000076, -0.000145 ,-0.000020
4.045531, 0.000076, -0.000145 ,-0.000020
4.045006, 0.000076, -0.000144 ,-0.000020
4.044476, 0.000076, -0.000144 ,-0.000020
4.043941, 0.000075, -0.000144 ,-0.000020
4.043403, 0.000075, -0.000143 ,-0.000019
4.042861, 0.000075, -0.000143 ,-0.000019
4.042314, 0.000075, -0.000143 ,-0.000019
4.041763, 0.000075, -0.000142 ,-0.000019
4.041208, 0.000075, -0.000142 ,-0.000019
4.040649, 0.000074, -0.000142 ,-0.000019
4.040086, 0.000074, -0.000142 ,-0.000018
4.039520, 0.000074, -0.000141 ,-0.000018
4.038949, 0.000074, -0.000141 ,-0.000018
4.038374, 0.000074, -0.000141 ,-0.000018
4.037796, 0.000074, -0.000140 ,-0.000018
4.037213, 0.000074, -0.000140 ,-0.000018
4.036627, 0.000073, -0.000140 ,-0.000018
4.036037, 0.000073, -0.000139 ,-0.000017
4.035443, 0.000073, -0.000139 ,-0.000017
4.034845, 0.000073, -0.000139 ,-0.000017
4.034244, 0.000073, -0.000138 ,-0.000017
4.033639, 0.000073, -0.000138 ,-0.000017
4.033031, 0.000073, -0.000138 ,-0.000017
4.032418, 0.000072, -0.000137 ,-0.000016
4.031802, 0.000072, -0.000137 ,-0.000016
4.031183, 0.000072, -0.000137 ,-0.000016
4.030560, 0.000072, -0.000137 ,-0.000016
4.029933, 0.000072, -0.000136 ,-0.000016
4.029304, 0.000072, -0.000136 ,-0.000016
4.028670, 0.000071, -0.000136 ,-0.000015
4.028033, 0.000071, -0.000135 ,-0.000015
4.027393, 0.000071, -0.000135 ,-0.000015
4.026750, 0.000071, -0.000135 ,-0.000015
4.026103, 0.000071, -0.000134 ,-0.000015
4.025453, 0.000071, -0.000134 ,-0.000015
4.024800, 0.000071, -0.000134 ,-0.000014
4.024143, 0.000070, -0.000133 ,-0.000014
4.023483, 0.000070, -0.000133 ,-0.000014
4.022820, 0.000070, -0.000133 ,-0.000014
4.022154, 0.000070, -0.000133 ,-0.000014
4.021485, 0.000070, -0.000132 ,-0.000014
4.020813, 0.000070, -0.000132 ,-0.000013
4.020137, 0.000070, -0.000132 ,-0.000013
4.019459, 0.000069, -0.000131 ,-0.000013
4.018778, 0.000069, -0.000131 ,-0.000013
4.018094, 0.000069, -0.000131 ,-0.000013
4.017406, 0.000069, -0.000130 ,-0.000013
4.016716, 0.000069, -0.000130 ,-0.000012
4.016024, 0.000069, -0.000130 ,-0.000012
4.015327, 0.000069, -0.000129 ,-0.000012
4.014629, 0.000068, -0.000129 ,-0.000012
4.013928, 0.000068, -0.000129 ,-0.000012
4.013224, 0.000068, -0.000129 ,-0.000012
4.012517, 0.000068, -0.000128 ,-0.000011
4.011808, 0.000068, -0.000128 ,-0.000011
4.011096, 0.000068, -0.000128 ,-0.000011
4.010381, 0.000067, -0.000127 ,-0.000011
4.009664, 0.000067, -0.000127 ,-0.000011
4.008944, 0.000067, -0.000127 ,-0.000010
4.008222, 0.000067, -0.000126 ,-0.000010
4.007497, 0.000067, -0.000126 ,-0.000010
4.006770, 0.000067, -0.000126 ,-0.000010
4.006040, 0.000067, -0.000125 ,-0.000010
4.005309, 0.000066, -0.000125 ,-0.000010
4.004574, 0.000066, -0.000125 ,-0.000009
4.003837, 0.000066, -0.000124 ,-0.000009
4.003098, 0.000066, -0.000124 ,-0.000009
4.002357, 0.000066, -0.000124 ,-0.000009
4.001614, 0.000066, -0.000124 ,-0.000009
4.000868, 0.000066, -0.000123 ,-0.000009
4.000120, 0.000065, -0.000123 ,-0.000008
3.999370, 0.000065, -0.000123 ,-0.000008
3.998618, 0.000065, -0.000122 ,-0.000008
3.997863, 0.000065, -0.000122 ,-0.000008
3.997107, 0.000065, -0.000122 ,-0.000008
3.996349, 0.000065, -0.000121 ,-0.000007
